File: V44/data/Reflektivität.UXD
; C:\DIFFDAT1\Praktikum\V44-FritzJan\Reflektivitï¿½t.raw(Diffrac Plus V1.01 file) converted by XCH V1.0
_FILEVERSION=2
_SITE='Deutschland'
_USER='Administrator'
_GONIOMETER_CODE=4885
; D8 Theta/Theta; Special
_SAMPLE_CHANGER_CODE=0
_ATTACHMENTS_CODE=0
_GONIOMETER_RADIUS=350
_FIXED_DIVSLIT=0.600000
_FIXED_SAMPLESLIT=0.000000
_FIXED_DETSLIT=11.66
_MONOCHROMATOR=0
; None
_THIN_FILM='N'
_BETA_FILTER='Y'
_FIXED_ANTISLIT=8.340000
_ANALYZER_CODE=0
; None
_DATEMEASURED='04-Nov-2024 10:26:55'
_WL_UNIT='A'
_WL1=1.540600
_WL2=1.544390
_WL3=1.392220
_WLRATIO=0.500000
_ANODE='Cu'
; (Data for Range number 1)
_DRIVE='THETA'
_STEPTIME=5.000660
_STEPSIZE=0.005000
_STEPMODE='C'
_START=0.000000
_THETA=0.000000
_2THETA=0.000000
_KHI=0.000000
_PHI=90
_X=3.419000
_Y=-2.750000
_Z=0.368000
_DIVERGENCE=0.000000
_ANTISCATTER=0.000000
_DETECTOR=5
_DETECTORSLIT='unkn'
_AUX1=0.000000
_AUX2=0.000000
_AUX3=0.000000
_TIMESTARTED=2.000000
_TEMP_RATE=-1.000000
_TEMP_DELAY=-1.000000
_KV=35
_MA=35
_RANGE_WL=1.540600
_3DPLANE=0
_GONIOMETER=-0.002600
_PSDCHANNEL0=0
_2THETACOUNTS
   0.0000   3205890
   0.0100   4297330
   0.0200   3673110
   0.0300   2123030
   0.0400   1268350
   0.0500   1009150
   0.0600    988045
   0.0700   1032510
   0.0800   1105670
   0.0900   1198840
   0.1000   1296530
   0.1100   1399240
   0.1200   1504520
   0.1300   1611520
   0.1400   1712930
   0.1500   1780360
   0.1600   1817000
   0.1700   1851060
   0.1800   1879430
   0.1900   1993310
   0.2000   2012110
   0.2100   1944560
   0.2200   1600070
   0.2300   1115670
   0.2400    642412
   0.2500    347876
   0.2600    241895
   0.2700    192153
   0.2800    133173
   0.2900     89925
   0.3000     79015
   0.3100     77488
   0.3200     61860
   0.3300     42046
   0.3400     34532
   0.3500     36825
   0.3600     35960
   0.3700     27316
   0.3800     19046
   0.3900     17975
   0.4000     20354
   0.4100     19193
   0.4200     14169
   0.4300     10160
   0.4400     10242
   0.4500     11785
   0.4600     11133
   0.4700      8228
   0.4800      5983
   0.4900      6125
   0.5000      7168
   0.5100      7024
   0.5200      5058
   0.5300      3676
   0.5400      3869
   0.5500      4651
   0.5600      4556
   0.5700      3490
   0.5800      2438
   0.5900      2395
   0.6000      3043
   0.6100      3028
   0.6200      2377
   0.6300      1661
   0.6400      1581
   0.6500      1880
   0.6600      2062
   0.6700      1657
   0.6800      1214
   0.6900      1093
   0.7000      1259
   0.7100      1340
   0.7200      1283
   0.7300       903
   0.7400       766
   0.7500       890
   0.7600       952
   0.7700       941
   0.7800       715
   0.7900       594
   0.8000       588
   0.8100       670
   0.8200       706
   0.8300       502
   0.8400       464
   0.8500       390
   0.8600       497
   0.8700       461
   0.8800       409
   0.8900       314
   0.9000       299
   0.9100       334
   0.9200       322
   0.9300       304
   0.9400       243
   0.9500       203
   0.9600       220
   0.9700       255
   0.9800       224
   0.9900       158
   1.0000       144
   1.0100       163
   1.0200       173
   1.0300       177
   1.0400       136
   1.0500       109
   1.0600       119
   1.0700       138
   1.0800       124
   1.0900       113
   1.1000       103
   1.1100        76
   1.1200        76
   1.1300        99
   1.1400        87
   1.1500        79
   1.1600        65
   1.1700        65
   1.1800        51
   1.1900        59
   1.2000        52
   1.2100        33
   1.2200        53
   1.2300        45
   1.2400        45
   1.2500        54
   1.2600        41
   1.2700        39
   1.2800        39
   1.2900        33
   1.3000        42
   1.3100        26
   1.3200        26
   1.3300        34
   1.3400        26
   1.3500        31
   1.3600        26
   1.3700        34
   1.3800        19
   1.3900        26
   1.4000        25
   1.4100        19
   1.4200        13
   1.4300        19
   1.4400        15
   1.4500        13
   1.4600        15
   1.4700        19
   1.4800        27
   1.4900        11
   1.5000        11
   1.5100        13
   1.5200         7
   1.5300        15
   1.5400         8
   1.5500        10
   1.5600        12
   1.5700         8
   1.5800         6
   1.5900        10
   1.6000         7
   1.6100        11
   1.6200         4
   1.6300         7
   1.6400         7
   1.6500         5
   1.6600         7
   1.6700         6
   1.6800         8
   1.6900         6
   1.7000         5
   1.7100         8
   1.7200         9
   1.7300         3
   1.7400         6
   1.7500         4
   1.7600         4
   1.7700         6
   1.7800         2
   1.7900         3
   1.8000         4
   1.8100         5
   1.8200         4
   1.8300         4
   1.8400         3
   1.8500         4
   1.8600         3
   1.8700         0
   1.8800         3
   1.8900         1
   1.9000         2
   1.9100         2
   1.9200         1
   1.9300         3
   1.9400         4
   1.9500         5
   1.9600         2
   1.9700         2
   1.9800         1
   1.9900         4
   2.0000         3
   2.0100         5
   2.0200         1
   2.0300         2
   2.0400         1
   2.0500         1
   2.0600         3
   2.0700         3
   2.0800         4
   2.0900         1
   2.1000         3
   2.1100         0
   2.1200         1
   2.1300         1
   2.1400         0
   2.1500         2
   2.1600         1
   2.1700         0
   2.1800         1
   2.1900         3
   2.2000         0
   2.2100         3
   2.2200         1
   2.2300         1
   2.2400         1
   2.2500         1
   2.2600         3
   2.2700         3
   2.2800         0
   2.2900         2
   2.3000         0
   2.3100         3
   2.3200         2
   2.3300         2
   2.3400         0
   2.3500         1
   2.3600         0
   2.3700         0
   2.3800         0
   2.3900         2
   2.4000         4
   2.4100         1
   2.4200         0
   2.4300         1
   2.4400         3
   2.4500         1
   2.4600         2
   2.4700         2
   2.4800         1
   2.4900         0
   2.5000         2