File: V44/data/Z-Scan-05to05v1.UXD
; C:\DIFFDAT1\Praktikum\V44-FritzJan\Z-Scan-05to05v1.raw(Diffrac Plus V1.01 file) converted by XCH V1.0
_FILEVERSION=2
_SITE='Deutschland'
_USER='Administrator'
_GONIOMETER_CODE=4885
; D8 Theta/Theta; Special
_SAMPLE_CHANGER_CODE=0
_ATTACHMENTS_CODE=0
_GONIOMETER_RADIUS=350
_FIXED_DIVSLIT=0.600000
_FIXED_SAMPLESLIT=0.000000
_FIXED_DETSLIT=11.66
_MONOCHROMATOR=0
; None
_THIN_FILM='N'
_BETA_FILTER='Y'
_FIXED_ANTISLIT=8.340000
_ANALYZER_CODE=0
; None
_DATEMEASURED='04-Nov-2024 10:04:02'
_WL_UNIT='A'
_WL1=1.540600
_WL2=1.544390
_WL3=1.392220
_WLRATIO=0.500000
_ANODE='Cu'
; (Data for Range number 1)
_DRIVE='Z'
_STEPTIME=1.000000
_STEPSIZE=0.020000
_STEPMODE='C'
_START=-0.500000
_THETA=0.000800
_2THETA=0.000000
_KHI=0.000000
_PHI=90
_X=3.419000
_Y=-2.750000
_Z=-0.500000
_DIVERGENCE=0.000000
_ANTISCATTER=0.000000
_DETECTOR=5
_DETECTORSLIT='unkn'
_AUX1=0.000000
_AUX2=0.000000
_AUX3=0.000000
_TIMESTARTED=3.000000
_TEMP_RATE=-1.000000
_TEMP_DELAY=-1.000000
_KV=35
_MA=35
_RANGE_WL=1.540600
_3DPLANE=0
_GONIOMETER=0.000000
_PSDCHANNEL0=0
_2THETACOUNTS
  -0.5000   1095740
  -0.4800   1098210
  -0.4600   1099100
  -0.4400   1099400
  -0.4200   1096500
  -0.4000   1100830
  -0.3800   1095670
  -0.3600   1098970
  -0.3400   1098640
  -0.3200   1096650
  -0.3000   1100680
  -0.2800   1096580
  -0.2600   1097070
  -0.2400   1101320
  -0.2200   1094630
  -0.2000   1099490
  -0.1800   1095230
  -0.1600   1099100
  -0.1400   1098420
  -0.1200   1096150
  -0.1000   1101930
  -0.0800   1095070
  -0.0600   1096960
  -0.0400   1097250
  -0.0200   1093120
   0.0000   1098100
   0.0200   1098800
   0.0400   1099720
   0.0600   1095640
   0.0800   1098650
   0.1000   1094020
   0.1200   1095560
   0.1400   1104440
   0.1600   1104730
   0.1800   1106060
   0.2000   1109110
   0.2200   1114150
   0.2400   1118730
   0.2600   1119320
   0.2800   1114590
   0.3000   1071990
   0.3200    980880
   0.3400    840497
   0.3600    685325
   0.3800    532926
   0.4000    372683
   0.4200    225711
   0.4400    109665
   0.4600     34783
   0.4800      1738
   0.5000        33